Wavelength Calibration Data
344.84	6.17
345.07	2.17
345.30	-2.83
345.53	-3.83
345.75	0.17
345.98	-1.83
346.21	-0.83
346.44	-0.83
346.67	-6.83
346.89	4.17
347.12	5.17
347.35	-9.83
347.58	0.17
347.81	-1.83
348.03	4.17
348.26	-0.83
348.49	3.17
348.72	4.17
348.94	1.17
349.17	1.17
349.40	-1.83
349.63	-1.83
349.86	-2.83
350.08	2.17
350.31	1.17
350.54	-1.83
350.77	-3.83
350.99	6.17
351.22	-0.83
351.45	0.17
351.68	0.17
351.91	-0.83
352.13	-6.83
352.36	1.17
352.59	1.17
352.82	-2.83
353.04	4.17
353.27	4.17
353.50	-7.83
353.73	-11.83
353.96	0.17
354.18	-6.83
354.41	-3.83
354.64	2.17
354.87	0.17
355.09	-0.83
355.32	-1.83
355.55	1.17
355.78	3.17
356.01	-4.83
356.23	0.17
356.46	-2.83
356.69	-0.83
356.92	-3.83
357.14	-2.83
357.37	-3.83
357.60	-2.83
357.83	-4.83
358.06	-5.83
358.28	5.17
358.51	-4.83
358.74	7.17
358.97	-1.83
359.19	0.17
359.42	-8.83
359.65	-2.83
359.88	-4.83
360.11	-4.83
360.33	2.17
360.56	-1.83
360.79	0.17
361.02	-1.83
361.24	2.17
361.47	-5.83
361.70	2.17
361.93	1.17
362.15	3.17
362.38	2.17
362.61	-0.83
362.84	-0.83
363.07	-3.83
363.29	-0.83
363.52	1.17
363.75	1.17
363.98	2.17
364.20	2.17
364.43	-3.83
364.66	-27.83
364.89	-1.83
365.11	-3.83
365.34	-0.83
365.57	5.17
365.80	-0.83
366.02	3.17
366.25	-3.83
366.48	-0.83
366.71	3.17
366.94	5.17
367.16	-6.83
367.39	-0.83
367.62	0.17
367.85	-2.83
368.07	-3.83
368.30	0.17
368.53	3.17
368.76	10.17
368.98	21.17
369.21	44.17
369.44	55.17
369.67	72.17
369.89	38.17
370.12	22.17
370.35	10.17
370.58	5.17
370.80	15.17
371.03	14.17
371.26	-4.83
371.49	2.17
371.71	3.17
371.94	-1.83
372.17	0.17
372.40	-1.83
372.63	-0.83
372.85	3.17
373.08	0.17
373.31	3.17
373.54	2.17
373.76	5.17
373.99	-1.83
374.22	-3.83
374.45	-5.83
374.67	-1.83
374.90	-2.83
375.13	-3.83
375.36	-3.83
375.58	-1.83
375.81	-11.83
376.04	2.17
376.27	-2.83
376.49	-0.83
376.72	2.17
376.95	6.17
377.18	0.17
377.40	1.17
377.63	0.17
377.86	0.17
378.09	0.17
378.31	0.17
378.54	-7.83
378.77	1.17
379.00	-2.83
379.22	1.17
379.45	1.17
379.68	1.17
379.91	4.17
380.13	-0.83
380.36	3.17
380.59	-1.83
380.82	1.17
381.04	-0.83
381.27	5.17
381.50	-4.83
381.73	-1.83
381.95	5.17
382.18	1.17
382.41	6.17
382.63	2.17
382.86	1.17
383.09	-1.83
383.32	6.17
383.54	0.17
383.77	1.17
384.00	-2.83
384.23	4.17
384.45	1.17
384.68	-1.83
384.91	0.17
385.14	2.17
385.36	0.17
385.59	-1.83
385.82	1.17
386.05	-3.83
386.27	-2.83
386.50	4.17
386.73	-6.83
386.96	3.17
387.18	7.17
387.41	3.17
387.64	6.17
387.86	2.17
388.09	-1.83
388.32	-1.83
388.55	4.17
388.77	3.17
389.00	-1.83
389.23	1.17
389.46	3.17
389.68	-0.83
389.91	1.17
390.14	5.17
390.37	3.17
390.59	4.17
390.82	-1.83
391.05	-0.83
391.27	4.17
391.50	-3.83
391.73	1.17
391.96	1.17
392.18	1.17
392.41	3.17
392.64	-3.83
392.87	3.17
393.09	-4.83
393.32	2.17
393.55	0.17
393.77	0.17
394.00	3.17
394.23	0.17
394.46	2.17
394.68	1.17
394.91	-0.83
395.14	-3.83
395.37	4.17
395.59	6.17
395.82	1.17
396.05	7.17
396.27	1.17
396.50	3.17
396.73	1.17
396.96	0.17
397.18	0.17
397.41	1.17
397.64	3.17
397.86	-3.83
398.09	0.17
398.32	2.17
398.55	3.17
398.77	4.17
399.00	0.17
399.23	-1.83
399.46	0.17
399.68	0.17
399.91	2.17
400.14	0.17
400.36	-0.83
400.59	4.17
400.82	3.17
401.05	3.17
401.27	4.17
401.50	-5.83
401.73	3.17
401.95	5.17
402.18	0.17
402.41	8.17
402.64	-9.83
402.86	-1.83
403.09	-1.83
403.32	-2.83
403.54	1.17
403.77	-1.83
404.00	1.17
404.23	8.17
404.45	2.17
404.68	4.17
404.91	7.17
405.13	-5.83
405.36	0.17
405.59	0.17
405.82	-2.83
406.04	-0.83
406.27	-3.83
406.50	2.17
406.72	0.17
406.95	-0.83
407.18	2.17
407.40	2.17
407.63	3.17
407.86	2.17
408.09	7.17
408.31	65.17
408.54	125.17
408.77	175.17
408.99	270.17
409.22	155.17
409.45	23.17
409.67	3.17
409.90	3.17
410.13	9.17
410.36	-0.83
410.58	0.17
410.81	5.17
411.04	-0.83
411.26	0.17
411.49	9.17
411.72	13.17
411.94	15.17
412.17	27.17
412.40	13.17
412.63	1.17
412.85	-0.83
413.08	-6.83
413.31	1.17
413.53	2.17
413.76	1.17
413.99	3.17
414.21	3.17
414.44	0.17
414.67	5.17
414.90	0.17
415.12	-2.83
415.35	-0.83
415.58	2.17
415.80	1.17
416.03	-1.83
416.26	6.17
416.48	2.17
416.71	3.17
416.94	-4.83
417.16	3.17
417.39	1.17
417.62	4.17
417.85	2.17
418.07	0.17
418.30	-3.83
418.53	-1.83
418.75	-0.83
418.98	2.17
419.21	1.17
419.43	1.17
419.66	2.17
419.89	0.17
420.11	3.17
420.34	-6.83
420.57	5.17
420.79	6.17
421.02	-2.83
421.25	3.17
421.48	-2.83
421.70	0.17
421.93	1.17
422.16	2.17
422.38	3.17
422.61	-4.83
422.84	2.17
423.06	-3.83
423.29	4.17
423.52	-1.83
423.74	2.17
423.97	2.17
424.20	1.17
424.42	-0.83
424.65	-5.83
424.88	3.17
425.10	6.17
425.33	1.17
425.56	3.17
425.78	0.17
426.01	7.17
426.24	-4.83
426.46	0.17
426.69	-4.83
426.92	7.17
427.14	7.17
427.37	-0.83
427.60	-8.83
427.82	-1.83
428.05	-5.83
428.28	0.17
428.51	3.17
428.73	-1.83
428.96	2.17
429.19	-2.83
429.41	-4.83
429.64	1.17
429.87	2.17
430.09	0.17
430.32	0.17
430.55	4.17
430.77	-1.83
431.00	-5.83
431.23	5.17
431.45	0.17
431.68	-0.83
431.91	-2.83
432.13	4.17
432.36	4.17
432.59	-4.83
432.81	-2.83
433.04	-0.83
433.27	-2.83
433.49	-6.83
433.72	3.17
433.94	2.17
434.17	2.17
434.40	1.17
434.62	-2.83
434.85	0.17
435.08	2.17
435.30	3.17
435.53	1.17
435.76	-0.83
435.98	8.17
436.21	1.17
436.44	6.17
436.66	-5.83
436.89	-2.83
437.12	-13.83
437.34	4.17
437.57	0.17
437.80	3.17
438.02	9.17
438.25	2.17
438.48	10.17
438.70	11.17
438.93	24.17
439.16	42.17
439.38	159.17
439.61	505.17
439.84	775.17
440.06	1507.17 
440.29	605.17
440.51	55.17
440.74	18.17
440.97	3.17
441.19	3.17
441.42	-1.83
441.65	5.17
441.87	5.17
442.10	-8.83
442.33	5.17
442.55	6.17
442.78	-0.83
443.01	-0.83
443.23	1.17
443.46	-9.83
443.69	-5.83
443.91	5.17
444.14	9.17
444.36	1.17
444.59	-2.83
444.82	4.17
445.04	-0.83
445.27	4.17
445.50	-3.83
445.72	0.17
445.95	-0.83
446.18	0.17
446.40	-4.83
446.63	2.17
446.85	6.17
447.08	5.17
447.31	0.17
447.53	4.17
447.76	3.17
447.99	-2.83
448.21	-0.83
448.44	1.17
448.67	-0.83
448.89	5.17
449.12	5.17
449.34	-1.83
449.57	-0.83
449.80	0.17
450.02	1.17
450.25	-1.83
450.48	3.17
450.70	-0.83
450.93	-4.83
451.16	4.17
451.38	3.17
451.61	-0.83
451.83	-2.83
452.06	1.17
452.29	-1.83
452.51	1.17
452.74	4.17
452.97	1.17
453.19	1.17
453.42	5.17
453.64	3.17
453.87	3.17
454.10	1.17
454.32	0.17
454.55	-2.83
454.78	9.17
455.00	-1.83
455.23	-4.83
455.45	-0.83
455.68	1.17
455.91	3.17
456.13	-0.83
456.36	-1.83
456.58	1.17
456.81	-2.83
457.04	-3.83
457.26	7.17
457.49	-0.83
457.72	5.17
457.94	-0.83
458.17	2.17
458.39	5.17
458.62	-1.83
458.85	-0.83
459.07	3.17
459.30	-4.83
459.52	4.17
459.75	4.17
459.98	1.17
460.20	4.17
460.43	-0.83
460.66	3.17
460.88	6.17
461.11	2.17
461.33	0.17
461.56	-0.83
461.79	-0.83
462.01	4.17
462.24	-2.83
462.46	1.17
462.69	0.17
462.92	5.17
463.14	-2.83
463.37	4.17
463.59	-0.83
463.82	-4.83
464.05	1.17
464.27	1.17
464.50	0.17
464.72	-1.83
464.95	-2.83
465.18	1.17
465.40	4.17
465.63	0.17
465.85	1.17
466.08	-1.83
466.31	-0.83
466.53	-2.83
466.76	-1.83
466.98	-4.83
467.21	3.17
467.44	-4.83
467.66	0.17
467.89	1.17
468.11	-1.83
468.34	-5.83
468.57	6.17
468.79	-2.83
469.02	-4.83
469.24	-2.83
469.47	-2.83
469.70	-1.83
469.92	-5.83
470.15	3.17
470.37	-4.83
470.60	3.17
470.83	0.17
471.05	-3.83
471.28	-1.83
471.50	-3.83
471.73	-4.83
471.95	1.17
472.18	0.17
472.41	3.17
472.63	1.17
472.86	0.17
473.08	-0.83
473.31	-4.83
473.54	0.17
473.76	-1.83
473.99	1.17
474.21	8.17
474.44	-0.83
474.66	5.17
474.89	1.17
475.12	-2.83
475.34	1.17
475.57	1.17
475.79	-4.83
476.02	1.17
476.25	2.17
476.47	-6.83
476.70	7.17
476.92	5.17
477.15	-0.83
477.37	2.17
477.60	1.17
477.83	4.17
478.05	6.17
478.28	2.17
478.50	0.17
478.73	-0.83
478.95	-1.83
479.18	-1.83
479.41	-1.83
479.63	8.17
479.86	3.17
480.08	-3.83
480.31	-4.83
480.53	-3.83
480.76	0.17
480.99	6.17
481.21	-3.83
481.44	0.17
481.66	-0.83
481.89	1.17
482.11	-2.83
482.34	2.17
482.57	0.17
482.79	1.17
483.02	1.17
483.24	7.17
483.47	4.17
483.69	1.17
483.92	-3.83
484.14	3.17
484.37	-0.83
484.60	1.17
484.82	-1.83
485.05	-2.83
485.27	2.17
485.50	4.17
485.72	1.17
485.95	1.17
486.17	3.17
486.40	1.17
486.63	-2.83
486.85	-0.83
487.08	-1.83
487.30	-1.83
487.53	-0.83
487.75	-2.83
487.98	1.17
488.20	9.17
488.43	-3.83
488.66	0.17
488.88	-0.83
489.11	-4.83
489.33	0.17
489.56	-0.83
489.78	-2.83
490.01	2.17
490.23	-2.83
490.46	1.17
490.68	-2.83
490.91	1.17
491.14	1.17
491.36	1.17
491.59	0.17
491.81	0.17
492.04	1.17
492.26	-0.83
492.49	0.17
492.71	-0.83
492.94	5.17
493.16	0.17
493.39	-3.83
493.62	-3.83
493.84	-4.83
494.07	3.17
494.29	-1.83
494.52	1.17
494.74	-0.83
494.97	-3.83
495.19	-2.83
495.42	-0.83
495.64	-9.83
495.87	7.17
496.09	7.17
496.32	-7.83
496.54	1.17
496.77	0.17
497.00	-2.83
497.22	-1.83
497.45	-5.83
497.67	-0.83
497.90	0.17
498.12	-4.83
498.35	1.17
498.57	4.17
498.80	-1.83
499.02	-1.83
499.25	-0.83
499.47	-0.83
499.70	1.17
499.92	-0.83
500.15	-4.83
500.37	-0.83
500.60	3.17
500.82	1.17
501.05	-4.83
501.28	-5.83
501.50	0.17
501.73	1.17
501.95	-5.83
502.18	2.17
502.40	1.17
502.63	-0.83
502.85	0.17
503.08	-0.83
503.30	2.17
503.53	-3.83
503.75	-0.83
503.98	1.17
504.20	-1.83
504.43	2.17
504.65	-4.83
504.88	3.17
505.10	3.17
505.33	-3.83
505.55	4.17
505.78	4.17
506.00	-2.83
506.23	2.17
506.45	2.17
506.68	2.17
506.90	-8.83
507.13	-0.83
507.35	-6.83
507.58	8.17
507.80	1.17
508.03	-2.83
508.25	-1.83
508.48	0.17
508.70	1.17
508.93	-0.83
509.15	5.17
509.38	-1.83
509.60	1.17
509.83	3.17
510.05	-2.83
510.28	-3.83
510.50	0.17
510.73	-1.83
510.95	1.17
511.18	6.17
511.40	3.17
511.63	3.17
511.85	-4.83
512.08	-3.83
512.30	1.17
512.53	7.17
512.75	4.17
512.98	2.17
513.20	-1.83
513.43	0.17
513.65	5.17
513.88	-0.83
514.10	0.17
514.33	-1.83
514.55	-0.83
514.78	5.17
515.00	3.17
515.23	-4.83
515.45	3.17
515.68	-5.83
515.90	-1.83
516.13	-6.83
516.35	-2.83
516.58	5.17
516.80	-2.83
517.03	-2.83
517.25	1.17
517.48	0.17
517.70	-4.83
517.93	-8.83
518.15	-1.83
518.38	7.17
518.60	3.17
518.83	-1.83
519.05	-1.83
519.27	-0.83
519.50	-0.83
519.72	-4.83
519.95	0.17
520.17	-0.83
520.40	3.17
520.62	3.17
520.85	-0.83
521.07	-0.83
521.30	5.17
521.52	3.17
521.75	-6.83
521.97	3.17
522.20	3.17
522.42	1.17
522.65	-5.83
522.87	-0.83
523.09	4.17
523.32	1.17
523.54	4.17
523.77	-3.83
523.99	4.17
524.22	-2.83
524.44	-8.83
524.67	2.17
524.89	1.17
525.12	0.17
525.34	2.17
525.57	4.17
525.79	-10.83
526.01	-1.83
526.24	-0.83
526.46	0.17
526.69	-0.83
526.91	0.17
527.14	-1.83
527.36	6.17
527.59	1.17
527.81	-0.83
528.04	-1.83
528.26	3.17
528.49	4.17
528.71	-2.83
528.93	1.17
529.16	-1.83
529.38	2.17
529.61	0.17
529.83	-1.83
530.06	2.17
530.28	-1.83
530.51	3.17
530.73	-0.83
530.95	-1.83
531.18	-0.83
531.40	-4.83
531.63	-0.83
531.85	1.17
532.08	3.17
532.30	3.17
532.53	2.17
532.75	-2.83
532.97	3.17
533.20	-3.83
533.42	-2.83
533.65	3.17
533.87	1.17
534.10	2.17
534.32	-4.83
534.55	0.17
534.77	4.17
534.99	-4.83
535.22	-5.83
535.44	1.17
535.67	5.17
535.89	1.17
536.12	-0.83
536.34	-1.83
536.56	2.17
536.79	0.17
537.01	0.17
537.24	-2.83
537.46	1.17
537.69	4.17
537.91	3.17
538.13	-0.83
538.36	1.17
538.58	3.17
538.81	-2.83
539.03	1.17
539.26	1.17
539.48	-7.83
539.70	-0.83
539.93	3.17
540.15	4.17
540.38	4.17
540.60	-1.83
540.83	5.17
541.05	-1.83
541.27	0.17
541.50	4.17
541.72	1.17
541.95	-3.83
542.17	4.17
542.39	-1.83
542.62	-3.83
542.84	0.17
543.07	-0.83
543.29	7.17
543.52	2.17
543.74	6.17
543.96	0.17
544.19	0.17
544.41	2.17
544.64	-2.83
544.86	-1.83
545.08	-0.83
545.31	-3.83
545.53	3.17
545.76	-0.83
545.98	1.17
546.20	0.17
546.43	-1.83
546.65	-1.83
546.88	1.17
547.10	-5.83
547.32	-6.83
547.55	-0.83
547.77	-11.83
548.00	-2.83
548.22	-8.83
548.44	-6.83
548.67	1.17
548.89	2.17
549.12	1.17
549.34	3.17
549.56	16.17
549.79	16.17
550.01	34.17
550.24	84.17
550.46	493.17
550.68	3859.17
550.91	3923.17
551.13	1849.17
551.36	36.17
551.58	15.17
551.80	8.17
552.03	14.17
552.25	2.17
552.48	10.17
552.70	10.17
552.92	4.17
553.15	7.17
553.37	3.17
553.59	9.17
553.82	-1.83
554.04	-3.83
554.27	0.17
554.49	-4.83
554.71	-1.83
554.94	0.17
555.16	-6.83
555.39	2.17
555.61	0.17
555.83	0.17
556.06	-2.83
556.28	-3.83
556.50	-5.83
556.73	-2.83
556.95	-1.83
557.18	-7.83
557.40	-1.83
557.62	-2.83
557.85	0.17
558.07	2.17
558.29	-2.83
558.52	-2.83
558.74	-5.83
558.97	4.17
559.19	4.17
559.41	3.17
559.64	-2.83
559.86	0.17
560.08	-4.83
560.31	3.17
560.53	2.17
560.75	10.17
560.98	2.17
561.20	1.17
561.43	-4.83
561.65	-4.83
561.87	0.17
562.10	-0.83
562.32	-4.83
562.54	-0.83
562.77	-6.83
562.99	-0.83
563.21	-0.83
563.44	4.17
563.66	0.17
563.88	2.17
564.11	6.17
564.33	3.17
564.56	1.17
564.78	1.17
565.00	-2.83
565.23	5.17
565.45	5.17
565.67	5.17
565.90	0.17
566.12	-1.83
566.34	2.17
566.57	-4.83
566.79	-0.83
567.01	3.17
567.24	0.17
567.46	0.17
567.68	-0.83
567.91	0.17
568.13	4.17
568.35	-0.83
568.58	2.17
568.80	-0.83
569.02	3.17
569.25	-3.83
569.47	-1.83
569.69	-0.83
569.92	-2.83
570.14	0.17
570.36	1.17
570.59	2.17
570.81	0.17
571.03	7.17
571.26	8.17
571.48	-2.83
571.70	2.17
571.93	1.17
572.15	4.17
572.37	-2.83
572.60	9.17
572.82	-0.83
573.04	-0.83
573.27	1.17
573.49	-2.83
573.71	-5.83
573.94	2.17
574.16	-0.83
574.38	-1.83
574.61	5.17
574.83	2.17
575.05	-1.83
575.28	1.17
575.50	5.17
575.72	-5.83
575.95	6.17
576.17	-0.83
576.39	-1.83
576.62	2.17
576.84	0.17
577.06	5.17
577.29	7.17
577.51	0.17
577.73	1.17
577.96	3.17
578.18	-1.83
578.40	3.17
578.62	1.17
578.85	1.17
579.07	5.17
579.29	1.17
579.52	-11.83
579.74	-1.83
579.96	-0.83
580.19	-1.83
580.41	7.17
580.63	3.17
580.86	1.17
581.08	3.17
581.30	9.17
581.52	12.17
581.75	47.17
581.97	867.17
582.19	698.17
582.42	319.17
582.64	23.17
582.86	7.17
583.09	2.17
583.31	6.17
583.53	12.17
583.75	21.17
583.98	277.17
584.20	1034.17
584.42	633.17
584.65	149.17
584.87	8.17
585.09	5.17
585.31	3.17
585.54	5.17
585.76	3.17
585.98	-0.83
586.21	-1.83
586.43	-2.83
586.65	-1.83
586.87	4.17
587.10	5.17
587.32	-1.83
587.54	0.17
587.77	-10.83
587.99	-2.83
588.21	-5.83
588.43	-0.83
588.66	-2.83
588.88	4.17
589.10	-0.83
589.33	-8.83
589.55	-3.83
589.77	1.17
589.99	-2.83
590.22	-0.83
590.44	0.17
590.66	1.17
590.89	-1.83
591.11	4.17
591.33	-3.83
591.55	-2.83
591.78	-0.83
592.00	2.17
592.22	-3.83
592.44	-7.83
592.67	-4.83
592.89	3.17
593.11	-8.83
593.33	-6.83
593.56	-4.83
593.78	5.17
594.00	3.17
594.23	-3.83
594.45	-2.83
594.67	4.17
594.89	-3.83
595.12	-4.83
595.34	-0.83
595.56	-2.83
595.78	-7.83
596.01	1.17
596.23	-5.83
596.45	-3.83
596.67	1.17
596.90	2.17
597.12	-2.83
597.34	0.17
597.56	-3.83
597.79	1.17
598.01	2.17
598.23	5.17
598.45	6.17
598.68	50.17
598.90	60.17
599.12	37.17
599.34	11.17
599.57	-0.83
599.79	3.17
600.01	3.17
600.23	5.17
600.46	10.17
600.68	-6.83
600.90	-6.83
601.12	0.17
601.35	-5.83
601.57	-0.83
601.79	4.17
602.01	-0.83
602.23	-1.83
602.46	-2.83
602.68	2.17
602.90	0.17
603.12	4.17
603.35	-1.83
603.57	-3.83
603.79	7.17
604.01	-1.83
604.24	4.17
604.46	-1.83
604.68	0.17
604.90	2.17
605.12	3.17
605.35	5.17
605.57	-0.83
605.79	-1.83
606.01	4.17
606.24	4.17
606.46	-0.83
606.68	2.17
606.90	0.17
607.13	-3.83
607.35	-4.83
607.57	2.17
607.79	-7.83
608.01	4.17
608.24	4.17
608.46	-0.83
608.68	0.17
608.90	-0.83
609.12	2.17
609.35	-4.83
609.57	0.17
609.79	14.17
610.01	7.17
610.24	1.17
610.46	10.17
610.68	-0.83
610.90	9.17
611.12	-2.83
611.35	6.17
611.57	6.17
611.79	-0.83
612.01	1.17
612.23	2.17
612.46	-2.83
612.68	-3.83
612.90	-1.83
613.12	-4.83
613.34	5.17
613.57	-0.83
613.79	-0.83
614.01	-12.83
614.23	-1.83
614.45	-0.83
614.68	6.17
614.90	2.17
615.12	4.17
615.34	-0.83
615.56	2.17
615.79	-0.83
616.01	2.17
616.23	-3.83
616.45	-1.83
616.67	-0.83
616.89	-6.83
617.12	-10.83
617.34	-19.83
617.56	-24.83
617.78	-27.83
618.00	-15.83
618.23	-9.83
618.45	-16.83
618.67	-5.83
618.89	-7.83
619.11	-0.83
619.33	0.17
619.56	-3.83
619.78	-3.83
620.00	-2.83
620.22	4.17
620.44	-1.83
620.67	-4.83
620.89	-1.83
621.11	-6.83
621.33	-10.83
621.55	-0.83
621.77	0.17
622.00	-2.83
622.22	-0.83
622.44	-7.83
622.66	-1.83
622.88	-0.83
623.10	-5.83
623.33	-0.83
623.55	1.17
623.77	2.17
623.99	-2.83
624.21	0.17
624.43	1.17
624.66	-2.83
624.88	-0.83
625.10	-0.83
625.32	-6.83
625.54	-2.83
625.76	-2.83
625.98	0.17
626.21	-9.83
626.43	0.17
626.65	1.17
626.87	-6.83
627.09	-5.83
627.31	-0.83
627.54	-63.83
627.76	3.17
627.98	-0.83
628.20	-5.83
628.42	-9.83
628.64	-1.83
628.86	-2.83
629.09	1.17
629.31	-3.83
629.53	4.17
629.75	3.17
629.97	-3.83
630.19	-3.83
630.41	1.17
630.64	-0.83
630.86	14.17
631.08	103.17
631.30	74.17
631.52	53.17
631.74	35.17
631.96	16.17
632.19	85.17
632.41	171.17
632.63	96.17
632.85	80.17
633.07	25.17
633.29	6.17
633.51	2.17
633.73	0.17
633.96	2.17
634.18	-0.83
634.40	-2.83
634.62	2.17
634.84	3.17
635.06	-1.83
635.28	6.17
635.50	0.17
635.73	-0.83
635.95	-1.83
636.17	-2.83
636.39	-0.83
636.61	-2.83
636.83	-0.83
637.05	-1.83
637.27	-2.83
637.50	0.17
637.72	-3.83
637.94	3.17
638.16	-3.83
638.38	-8.83
638.60	7.17
638.82	-4.83
639.04	6.17
639.26	-1.83
639.49	-1.83
639.71	-2.83
639.93	0.17
640.15	-1.83
640.37	-2.83
640.59	1.17
640.81	-0.83
641.03	4.17
641.25	4.17
641.47	0.17
641.70	-1.83
641.92	0.17
642.14	-2.83
642.36	1.17
642.58	1.17
642.80	-2.83
643.02	0.17
643.24	5.17
643.46	4.17
643.68	2.17
643.91	-4.83
644.13	-3.83
644.35	-0.83
644.57	-2.83
644.79	-0.83
645.01	2.17
645.23	6.17
645.45	-0.83
645.67	-3.83
645.89	-3.83
646.11	-4.83
646.33	-3.83
646.56	-2.83
646.78	5.17
647.00	1.17
647.22	4.17
647.44	-0.83
647.66	-6.83
647.88	5.17
648.10	0.17
648.32	3.17
648.54	-4.83
648.76	1.17
648.98	-0.83
649.21	-3.83
649.43	-0.83
649.65	-0.83
649.87	1.17
650.09	2.17
650.31	0.17
650.53	1.17
650.75	1.17
650.97	3.17
651.19	0.17
651.41	-2.83
651.63	1.17
651.85	0.17
652.07	-2.83
652.29	-4.83
652.51	0.17
652.74	-1.83
652.96	8.17
653.18	-0.83
653.40	-4.83
653.62	-5.83
653.84	3.17
654.06	7.17
654.28	1.17
654.50	3.17
654.72	5.17
654.94	-0.83
655.16	3.17
655.38	-2.83
655.60	0.17
655.82	-5.83
656.04	1.17
656.26	-3.83
656.48	2.17
656.70	5.17
656.93	-0.83
657.15	-3.83
657.37	2.17
657.59	3.17
657.81	-5.83
658.03	-1.83
658.25	-1.83
658.47	-4.83
658.69	0.17
658.91	-3.83
659.13	0.17
659.35	-0.83
659.57	0.17
659.79	1.17
660.01	6.17
660.23	2.17
660.45	3.17
660.67	-0.83
660.89	7.17
661.11	0.17
661.33	6.17
661.55	-1.83
661.77	0.17
661.99	-1.83
662.21	-0.83
662.43	0.17
662.65	2.17
662.87	-4.83
663.09	1.17
663.31	-0.83
663.53	-0.83
663.75	-6.83
663.97	-4.83
664.20	4.17
664.42	-1.83
664.64	-2.83
664.86	2.17
665.08	-1.83
665.30	-0.83
665.52	-4.83
665.74	9.17
665.96	2.17
666.18	2.17
666.40	1.17
666.62	4.17
666.84	-3.83
667.06	5.17
667.28	-0.83
667.50	-0.83
667.72	-1.83
667.94	-2.83
668.16	2.17
668.38	0.17
668.60	2.17
668.82	-2.83
669.04	-0.83
669.26	-0.83
669.48	2.17
669.70	1.17
669.92	-1.83
670.14	3.17
670.36	2.17
670.58	0.17
670.80	3.17
671.02	-1.83
671.24	5.17
671.46	-5.83
671.68	6.17
671.90	0.17
672.12	3.17
672.34	-0.83
672.55	3.17
672.77	1.17
672.99	-3.83
673.21	1.17
673.43	-1.83
673.65	2.17
673.87	0.17
674.09	-2.83
674.31	-1.83
674.53	-2.83
674.75	-4.83
674.97	4.17
675.19	4.17
675.41	13.17
675.63	-0.83
675.85	9.17
676.07	3.17
676.29	-2.83
